File: V44/vXXX/Daten/messung2.UXD
; C:\DIFFDAT1\Praktikum\schrödergoeke\messung2.raw(Diffrac Plus V1.01 file) converted by XCH V1.0
_FILEVERSION=2
_SITE='Deutschland'
_USER='Administrator'
_GONIOMETER_CODE=4885
; D8 Theta/Theta; Special
_SAMPLE_CHANGER_CODE=0
_ATTACHMENTS_CODE=0
_GONIOMETER_RADIUS=350
_FIXED_DIVSLIT=0.600000
_FIXED_SAMPLESLIT=0.000000
_FIXED_DETSLIT=11.66
_MONOCHROMATOR=0
; None
_THIN_FILM='N'
_BETA_FILTER='Y'
_FIXED_ANTISLIT=8.340000
_ANALYZER_CODE=0
; None
_DATEMEASURED='25-Nov-2024 11:29:56'
_WL_UNIT='A'
_WL1=1.540600
_WL2=1.544390
_WL3=1.392220
_WLRATIO=0.500000
_ANODE='Cu'
; (Data for Range number 1)
_DRIVE='THETA'
_STEPTIME=5.000660
_STEPSIZE=0.005000
_STEPMODE='C'
_START=0.000000
_THETA=0.000000
_2THETA=0.200000
_KHI=0.000000
_PHI=92.46
_X=2.906000
_Y=2.250000
_Z=0.018000
_DIVERGENCE=0.000000
_ANTISCATTER=0.000000
_DETECTOR=5
_DETECTORSLIT='unkn'
_AUX1=0.000000
_AUX2=0.000000
_AUX3=0.000000
_TIMESTARTED=2.000000
_TEMP_RATE=-1.000000
_TEMP_DELAY=-1.000000
_KV=35
_MA=35
_RANGE_WL=1.540600
_3DPLANE=0
_GONIOMETER=0.197700
_PSDCHANNEL0=0
_2THETACOUNTS
   0.0000     40005
   0.0100     31545
   0.0200     28198
   0.0300     26990
   0.0400     24486
   0.0500     17783
   0.0600     15457
   0.0700     13746
   0.0800     11554
   0.0900     10603
   0.1000      9029
   0.1100      7502
   0.1200      6092
   0.1300      5038
   0.1400      4147
   0.1500      3211
   0.1600      2380
   0.1700      1690
   0.1800      1404
   0.1900      1046
   0.2000       827
   0.2100       625
   0.2200       484
   0.2300       361
   0.2400       270
   0.2500       186
   0.2600       134
   0.2700       112
   0.2800        63
   0.2900        31
   0.3000        51
   0.3100        35
   0.3200        29
   0.3300        30
   0.3400        29
   0.3500        22
   0.3600        24
   0.3700        23
   0.3800        19
   0.3900        14
   0.4000        21
   0.4100        13
   0.4200        20
   0.4300        15
   0.4400        14
   0.4500         8
   0.4600         9
   0.4700        11
   0.4800        10
   0.4900        10
   0.5000         6
   0.5100        13
   0.5200        13
   0.5300         8
   0.5400         4
   0.5500         5
   0.5600         4
   0.5700         6
   0.5800         6
   0.5900         5
   0.6000         7
   0.6100         4
   0.6200         9
   0.6300         6
   0.6400         6
   0.6500        12
   0.6600        10
   0.6700        10
   0.6800        16
   0.6900        14
   0.7000        15
   0.7100         5
   0.7200         9
   0.7300        11
   0.7400         6
   0.7500         8
   0.7600         6
   0.7700         3
   0.7800         3
   0.7900         7
   0.8000         2
   0.8100         3
   0.8200         1
   0.8300         3
   0.8400         0
   0.8500         2
   0.8600         0
   0.8700         3
   0.8800         0
   0.8900         3
   0.9000         3
   0.9100         1
   0.9200         0
   0.9300         1
   0.9400         0
   0.9500         0
   0.9600         1
   0.9700         1
   0.9800         0
   0.9900         1
   1.0000         1
   1.0100         0
   1.0200         1
   1.0300         0
   1.0400         1
   1.0500         0
   1.0600         1
   1.0700         1
   1.0800         2
   1.0900         0
   1.1000         2
   1.1100         1
   1.1200         0
   1.1300         1
   1.1400         2
   1.1500         0
   1.1600         1
   1.1700         1
   1.1800         1
   1.1900         0
   1.2000         1
   1.2100         0
   1.2200         2
   1.2300         0
   1.2400         1
   1.2500         0
   1.2600         0
   1.2700         1
   1.2800         0
   1.2900         0
   1.3000         1
   1.3100         0
   1.3200         1
   1.3300         1
   1.3400         1
   1.3500         3
   1.3600         0
   1.3700         0
   1.3800         1
   1.3900         0
   1.4000         0
   1.4100         0
   1.4200         0
   1.4300         0
   1.4400         0
   1.4500         0
   1.4600         1
   1.4700         2
   1.4800         1
   1.4900         0
   1.5000         0
   1.5100         0
   1.5200         1
   1.5300         1
   1.5400         0
   1.5500         0
   1.5600         0
   1.5700         0
   1.5800         0
   1.5900         0
   1.6000         0
   1.6100         0
   1.6200         0
   1.6300         0
   1.6400         0
   1.6500         0
   1.6600         0
   1.6700         0
   1.6800         0
   1.6900         0
   1.7000         0
   1.7100         0
   1.7200         0
   1.7300         0
   1.7400         1
   1.7500         0
   1.7600         0
   1.7700         0
   1.7800         0
   1.7900         0
   1.8000         0
   1.8100         0
   1.8200         0
   1.8300         0
   1.8400         2
   1.8500         0
   1.8600         0
   1.8700         0
   1.8800         0
   1.8900         0
   1.9000         0
   1.9100         2
   1.9200         0
   1.9300         1
   1.9400         1
   1.9500         0
   1.9600         1
   1.9700         0
   1.9800         0
   1.9900         1
   2.0000         0