File: V44/vXXX/Daten/messung1.UXD
; C:\DIFFDAT1\Praktikum\schrödergoeke\messung1.raw(Diffrac Plus V1.01 file) converted by XCH V1.0
_FILEVERSION=2
_SITE='Deutschland'
_USER='Administrator'
_GONIOMETER_CODE=4885
; D8 Theta/Theta; Special
_SAMPLE_CHANGER_CODE=0
_ATTACHMENTS_CODE=0
_GONIOMETER_RADIUS=350
_FIXED_DIVSLIT=0.600000
_FIXED_SAMPLESLIT=0.000000
_FIXED_DETSLIT=11.66
_MONOCHROMATOR=0
; None
_THIN_FILM='N'
_BETA_FILTER='Y'
_FIXED_ANTISLIT=8.340000
_ANALYZER_CODE=0
; None
_DATEMEASURED='25-Nov-2024 10:54:27'
_WL_UNIT='A'
_WL1=1.540600
_WL2=1.544390
_WL3=1.392220
_WLRATIO=0.500000
_ANODE='Cu'
; (Data for Range number 1)
_DRIVE='THETA'
_STEPTIME=5.000660
_STEPSIZE=0.005000
_STEPMODE='C'
_START=0.000000
_THETA=0.000000
_2THETA=0.000000
_KHI=0.000000
_PHI=92.46
_X=2.906000
_Y=2.250000
_Z=0.018000
_DIVERGENCE=0.000000
_ANTISCATTER=0.000000
_DETECTOR=5
_DETECTORSLIT='unkn'
_AUX1=0.000000
_AUX2=0.000000
_AUX3=0.000000
_TIMESTARTED=2.000000
_TEMP_RATE=-1.000000
_TEMP_DELAY=-1.000000
_KV=35
_MA=35
_RANGE_WL=1.540600
_3DPLANE=0
_GONIOMETER=-0.002500
_PSDCHANNEL0=0
_2THETACOUNTS
   0.0000    900971
   0.0100   1354680
   0.0200   1204050
   0.0300    609577
   0.0400    391291
   0.0500    317721
   0.0600    317698
   0.0700    334613
   0.0800    357469
   0.0900    391473
   0.1000    423552
   0.1100    453820
   0.1200    489626
   0.1300    524922
   0.1400    559384
   0.1500    587454
   0.1600    615460
   0.1700    587678
   0.1800    625961
   0.1900    629496
   0.2000    681186
   0.2100    691809
   0.2200    633788
   0.2300    520247
   0.2400    263885
   0.2500     92982
   0.2600     69851
   0.2700     84273
   0.2800     59517
   0.2900     23843
   0.3000     17730
   0.3100     29836
   0.3200     29962
   0.3300     15927
   0.3400      6744
   0.3500      9912
   0.3600     15301
   0.3700     12820
   0.3800      6102
   0.3900      3348
   0.4000      6076
   0.4100      8325
   0.4200      6591
   0.4300      3033
   0.4400      2038
   0.4500      3715
   0.4600      4962
   0.4700      3835
   0.4800      1823
   0.4900      1352
   0.5000      2300
   0.5100      3151
   0.5200      2523
   0.5300      1277
   0.5400       892
   0.5500      1508
   0.5600      2078
   0.5700      1796
   0.5800       848
   0.5900       572
   0.6000       962
   0.6100      1343
   0.6200      1230
   0.6300       736
   0.6400       333
   0.6500       524
   0.6600       919
   0.6700       925
   0.6800       535
   0.6900       287
   0.7000       370
   0.7100       590
   0.7200       607
   0.7300       462
   0.7400       219
   0.7500       213
   0.7600       386
   0.7700       462
   0.7800       342
   0.7900       199
   0.8000       147
   0.8100       243
   0.8200       311
   0.8300       260
   0.8400       162
   0.8500       112
   0.8600       131
   0.8700       216
   0.8800       215
   0.8900       125
   0.9000        70
   0.9100        87
   0.9200       135
   0.9300       149
   0.9400       127
   0.9500        53
   0.9600        65
   0.9700        83
   0.9800       125
   0.9900        84
   1.0000        51
   1.0100        34
   1.0200        60
   1.0300        70
   1.0400        66
   1.0500        49
   1.0600        38
   1.0700        40
   1.0800        50
   1.0900        54
   1.1000        36
   1.1100        22
   1.1200        26
   1.1300        39
   1.1400        40
   1.1500        40
   1.1600        18
   1.1700        15
   1.1800        29
   1.1900        32
   1.2000        26
   1.2100        16
   1.2200         8
   1.2300        16
   1.2400        25
   1.2500        13
   1.2600         8
   1.2700        10
   1.2800         7
   1.2900        18
   1.3000         8
   1.3100        10
   1.3200         9
   1.3300         7
   1.3400        10
   1.3500         8
   1.3600        12
   1.3700         8
   1.3800         4
   1.3900         3
   1.4000        10
   1.4100         3
   1.4200         7
   1.4300         4
   1.4400         3
   1.4500         6
   1.4600         4
   1.4700         7
   1.4800         3
   1.4900         4
   1.5000         8
   1.5100         8
   1.5200         3
   1.5300         1
   1.5400         3
   1.5500         8
   1.5600         3
   1.5700         5
   1.5800         4
   1.5900         5
   1.6000         1
   1.6100         3
   1.6200         2
   1.6300         3
   1.6400         3
   1.6500         4
   1.6600         4
   1.6700         4
   1.6800         2
   1.6900         0
   1.7000         3
   1.7100         2
   1.7200         1
   1.7300         3
   1.7400         1
   1.7500         0
   1.7600         1
   1.7700         0
   1.7800         3
   1.7900         2
   1.8000         1
   1.8100         3
   1.8200         5
   1.8300         1
   1.8400         1
   1.8500         0
   1.8600         2
   1.8700         0
   1.8800         0
   1.8900         1
   1.9000         2
   1.9100         1
   1.9200         1
   1.9300         2
   1.9400         0
   1.9500         0
   1.9600         2
   1.9700         0
   1.9800         1
   1.9900         1
   2.0000         0