File: V44/vXXX/Daten/Rockingscan0,3.UXD
; C:\DIFFDAT1\Praktikum\schrödergoeke\Rockingscan0,3.raw(Diffrac Plus V1.01 file) converted by XCH V1.0
_FILEVERSION=2
_SITE='Deutschland'
_USER='Administrator'
_GONIOMETER_CODE=4885
; D8 Theta/Theta; Special
_SAMPLE_CHANGER_CODE=0
_ATTACHMENTS_CODE=0
_GONIOMETER_RADIUS=350
_FIXED_DIVSLIT=0.600000
_FIXED_SAMPLESLIT=0.000000
_FIXED_DETSLIT=11.66
_MONOCHROMATOR=0
; None
_THIN_FILM='N'
_BETA_FILTER='Y'
_FIXED_ANTISLIT=8.340000
_ANALYZER_CODE=0
; None
_DATEMEASURED='25-Nov-2024 10:41:55'
_WL_UNIT='A'
_WL1=1.540600
_WL2=1.544390
_WL3=1.392220
_WLRATIO=0.500000
_ANODE='Cu'
; (Data for Range number 1)
_DRIVE='THETA'
_STEPTIME=1.000000
_STEPSIZE=0.005000
_STEPMODE='S'
_START=0.000000
_THETA=0.000000
_2THETA=0.300000
_KHI=0.000000
_PHI=92.46
_X=2.906000
_Y=2.250000
_Z=0.014000
_DIVERGENCE=0.000000
_ANTISCATTER=0.000000
_DETECTOR=5
_DETECTORSLIT='unkn'
_AUX1=0.000000
_AUX2=0.000000
_AUX3=0.000000
_TIMESTARTED=2.000000
_TEMP_RATE=-1.000000
_TEMP_DELAY=-1.000000
_KV=35
_MA=35
_RANGE_WL=1.540600
_3DPLANE=0
_GONIOMETER=0.300000
_PSDCHANNEL0=0
_2THETACOUNTS
   0.0000      3243
   0.0050      3292
   0.0100      3273
   0.0150      3178
   0.0200      3217
   0.0250      3311
   0.0300      3270
   0.0350      3276
   0.0400      3317
   0.0450      3209
   0.0500      3432
   0.0550      3433
   0.0600      3577
   0.0650      3508
   0.0700      3596
   0.0750      3592
   0.0800      3764
   0.0850      3903
   0.0900      4047
   0.0950      4449
   0.1000      4925
   0.1050      5121
   0.1100      5560
   0.1150      6215
   0.1200      7433
   0.1250      9392
   0.1300     10792
   0.1350     15221
   0.1400     31234
   0.1450     65959
   0.1500     99259
   0.1550    117316
   0.1600    124523
   0.1650    118792
   0.1700     99548
   0.1750     56823
   0.1800     23746
   0.1850     12231
   0.1900      9891
   0.1950      8477
   0.2000      7463
   0.2050      6636
   0.2100      5543
   0.2150      5113
   0.2200      4451
   0.2250      4194
   0.2300      3842
   0.2350      3467
   0.2400      3536
   0.2450      3438
   0.2500      3311
   0.2550      3388
   0.2600      3209
   0.2650      3275
   0.2700      3257
   0.2750      3257
   0.2800      3185
   0.2850      3273
   0.2900      3287
   0.2950      3162
   0.3000      3284