File: V44/vXXX/Daten/Xscan.UXD
; C:\DIFFDAT1\Praktikum\schrï¿½dergoeke\Xscan.raw(Diffrac Plus V1.01 file) converted by XCH V1.0
_FILEVERSION=2
_SITE='Deutschland'
_USER='Administrator'
_GONIOMETER_CODE=4885
; D8 Theta/Theta; Special
_SAMPLE_CHANGER_CODE=0
_ATTACHMENTS_CODE=0
_GONIOMETER_RADIUS=350
_FIXED_DIVSLIT=0.600000
_FIXED_SAMPLESLIT=0.000000
_FIXED_DETSLIT=11.66
_MONOCHROMATOR=0
; None
_THIN_FILM='N'
_BETA_FILTER='Y'
_FIXED_ANTISLIT=8.340000
_ANALYZER_CODE=0
; None
_DATEMEASURED='25-Nov-2024 10:07:15'
_WL_UNIT='A'
_WL1=1.540600
_WL2=1.544390
_WL3=1.392220
_WLRATIO=0.500000
_ANODE='Cu'
; (Data for Range number 1)
_DRIVE='X'
_STEPTIME=1.000000
_STEPSIZE=1.000000
_STEPMODE='C'
_START=-20
_THETA=0.000000
_2THETA=0.000000
_KHI=0.000000
_PHI=92.46
_X=-20
_Y=0.750000
_Z=-0.005000
_DIVERGENCE=0.000000
_ANTISCATTER=0.000000
_DETECTOR=5
_DETECTORSLIT='unkn'
_AUX1=0.000000
_AUX2=0.000000
_AUX3=0.000000
_TIMESTARTED=5.000000
_TEMP_RATE=-1.000000
_TEMP_DELAY=-1.000000
_KV=35
_MA=35
_RANGE_WL=1.540600
_3DPLANE=0
_GONIOMETER=0.000000
_PSDCHANNEL0=0
_2THETACOUNTS
 -20.0000    373662
 -19.0000    375329
 -18.0000    372272
 -17.0000    372959
 -16.0000    376324
 -15.0000    374579
 -14.0000    376727
 -13.0000    350586
 -12.0000    197682
 -11.0000    168768
 -10.0000    168460
  -9.0000    173911
  -8.0000    169708
  -7.0000    178437
  -6.0000    178074
  -5.0000    181566
  -4.0000    184189
  -3.0000    186337
  -2.0000    188605
  -1.0000    191180
   0.0000    192460
   1.0000    195525
   2.0000    198219
   3.0000    198811
   4.0000    203567
   5.0000    206625
   6.0000    208449
   7.0000    210654
   8.0000    217542
   9.0000    214596
  10.0000    271405
  11.0000    369420
  12.0000    374539
  13.0000    373480
  14.0000    376324
  15.0000    377091
  16.0000    374871
  17.0000    375937
  18.0000    375100
  19.0000    375542
  20.0000    359695